'IUE_ABS'
'LWP,LAP,LORES,ITF2: Cassatella, Lloyd, Gonzalez Riestra. 1987.'

1.0E-14  8.0  -0.0024

61   0   0   0

1850   18.0
1875   10.54
1900    6.88
1925    4.88
1950    3.314
1975    2.642
2000    2.392
2025    2.220
2050    2.092
2075    2.040
2100    1.988
2125    1.945
2150    1.934
2175    1.943
2200    1.945
2225    1.880
2250    1.757
2275    1.603
2300    1.473
2325    1.327
2350    1.191
2375    1.061
2400    0.962
2425    0.875
2450    0.811
2475    0.754
2500    0.704
2525    0.646
2550    0.595
2575    0.559
2600    0.537
2625    0.513
2650    0.488
2675    0.470
2700    0.464
2725    0.458
2750    0.454
2775    0.455
2800    0.461
2825    0.472
2850    0.482
2875    0.496
2900    0.516
2925    0.546
2950    0.585
2975    0.641
3000    0.713
3025    0.814
3050    0.941
3075    1.113
3100    1.328
3125    1.612
3150    1.979
3175    2.457
3200    3.117
3225    4.001
3250    5.264
3275    6.881
3300    9.017
3325   12.34
3350   18.0

# Title:      LWP,LAP,LORES,ITF2 Absolute Flux Calibration.
# From:       Cassatella, Lloyd and Gonzalez Riestra. 1987. VILSPA.
# Contents:   CALTYP,
#             CALID, 
#             SCALE, THDA, DFNDT,
#             NABS,  NSAP, NTRAIL, DATYP,
#             (WABS(I), DFDFN(I), I = 1, NABS)
# Notes:      Wavelengths above 2000A are "Air".
# End:
