# INDEX        X         Y  INTENSITY  ELLIPT
     1   81.5073  124.3071       4879  0.0
     2    8.0331   42.9147       8064  0.0
     3   69.1713  106.6506       6520  0.0
     4  221.8794  149.2542       6069  0.0
     5  238.0602   53.2740       8316  0.0
     6   52.9542  219.4797       4620  0.0
     7   88.2681   67.4409       4822  0.0
     8  175.0200  286.6500       4523  0.0
     9  217.1505  122.4057       4817  0.0
    10  143.1102   80.5200       8404  0.0
    11   65.8782   37.5342       5901  0.0
    12   70.8423  155.7957       5138  0.0
    13   61.6736  211.2432       6789  0.0
    14  274.3854  188.3637       7527  0.0
    15  191.6244  220.4334       7480  0.0
    16  206.6106  236.9289       6282  0.0
    17   72.1007  108.0036       5258  0.0
    18  112.2060  157.7106       8523  0.0
    19  217.9737  248.9175       4166  0.0
    20  118.0653  271.1601       4236  0.0
    21   67.7303  203.8527       8113  0.0
    22   53.7117  109.4502       5048  0.0
    23   16.9110  121.6191       4419  0.0
    24   47.8882  129.2556       7227  0.0
    25   41.4319  198.6465       5982  0.0
    26  285.9543  247.7634       8905  0.0
    27   22.8400  134.4369       8086  0.0
    28   73.4649  210.7698       8882  0.0
    29   93.7674  104.4333       6586  0.0
    30  248.5746   86.2134       4073  0.0
    31  123.5787  153.8442       9802  0.0
    32   31.7496  157.1277       5322  0.0
    33  299.3172  150.9276       5672  0.0
    34  197.7780  265.4808       4111  0.0
    35   18.1713  298.5798       8105  0.0
    36   69.9224  129.4179       7615  0.0
    37  265.7709  275.8695       9789  0.0
    38   62.4501  147.1284       9981  0.0
    39  274.8735  141.8178       8430  0.0
    40  224.6166   47.2359       9479  0.0
    41   48.5383  161.6624       9473  0.0
    42  296.1342  166.0203       9621  0.0
    43   98.6871  273.0540       8793  0.0
    44  107.0706  128.4126       9091  0.0
    45  122.3610  250.9875       6024  0.0
    46  226.8330  254.2311       7366  0.0
    47  203.1489  249.8355       4623  0.0
    48  268.3278  220.9104       9243  0.0
    49  212.1048  170.3886       8984  0.0
    50   49.3428  275.9949       5516  0.0
    51  287.1933  195.1002       9375  0.0
    52   36.6168  270.8547       4170  0.0
    53  273.3870   59.2101       4162  0.0
    54  103.0719  164.5049       6506  0.0
    55  206.9910  116.5203       6405  0.0
    56   74.5220  109.0353       4630  0.0
    57    7.9353  177.1539       9299  0.0
    58  134.4363  228.3141       8397  0.0
    59  129.0411  134.2512       5524  0.0
    60  116.4324  117.4542       7176  0.0
    61  273.1671  189.7203       4154  0.0
    62  227.4138  229.4016       5522  0.0
    63  151.0200  125.0463       6079  0.0
    64   57.7867  106.5350       7111  0.0
    65  288.9939   62.0337       6462  0.0
    66  140.9886  152.9193       5482  0.0
    67   17.0403  169.7181       7862  0.0
    68  202.6500   50.2128       5050  0.0
    69  190.8831   44.5479       9705  0.0
    70  227.5446  238.5936       8965  0.0
    71  149.7006   75.2310       7526  0.0
    72   33.9729  168.9762       6839  0.0
    73   43.4532  235.4148       6390  0.0
    74   95.0529  239.4486       8273  0.0
    75  206.8650  140.7105       6147  0.0
    76  207.3648   11.3931       5080  0.0
    77  155.7231  139.6452       5554  0.0
    78  121.7022  251.5500       6506  0.0
    79   60.6708  233.0976       8702  0.0
    80  103.3908  233.0580       6679  0.0
    81  150.5925  146.2434       9339  0.0
    82   76.5963  292.5900       6800  0.0
    83  194.9436  205.0146       4586  0.0
    84   99.3099  202.9167       4211  0.0
    85  165.9480  200.3304       6955  0.0
    86   43.7253  111.7113       5649  0.0
    87  285.3213  238.5357       4358  0.0
    88   57.3190  176.2985       6099  0.0
    89    5.7795  210.0525       7980  0.0
    90  179.6847   45.1044       4362  0.0
    91    1.3071   46.9326       7096  0.0
    92  131.6235  204.5871       8364  0.0
    93   74.9814  292.8156       5939  0.0
    94  131.4702  106.9713       7795  0.0
    95  122.6457  188.2392       4022  0.0
    96   88.2939  167.5310       5048  0.0
    97   28.4781  244.2087       7455  0.0
    98  224.5785  172.5306       6962  0.0
    99   94.8695  131.6988       6132  0.0
   100  160.6404  237.0705       9040  0.0
   101   85.3662  138.5622       5689  0.0
   102   97.8836  159.7884       5378  0.0
   103  202.5105  141.9606       6462  0.0
   104   51.4723   97.0348       4036  0.0
   105  240.5271   36.7218       9873  0.0
   106  194.0133   31.5570       4914  0.0
   107   79.7004  290.1720       6563  0.0
   108   17.7537  130.3509       5029  0.0
   109   71.6379  237.5817       6395  0.0
   110  194.8548   95.0019       6690  0.0
   111   34.5337  165.6750       7222  0.0
   112   72.2561  248.4024       8175  0.0
   113   64.0611  255.9912       6283  0.0
   114   60.0169  142.5321       8372  0.0
   115  136.8618  222.5673       8356  0.0
   116   54.7338  133.1415       4277  0.0
   117  232.2492   82.0332       5512  0.0
   118   12.8955  228.7806       6058  0.0
   119  225.0138  266.6151       9558  0.0
   120   37.9977  110.1858       4661  0.0
   121  127.7724  254.7156       7434  0.0
   122  171.1008  189.6555       6245  0.0
   123   42.6963  132.0027       8286  0.0
   124  273.5175  161.8995       8795  0.0
   125  263.7177  105.6765       6442  0.0
   126  122.7219  249.5898       7902  0.0
   127   65.3574  167.7705       8736  0.0
   128  194.3022   73.9236       7544  0.0
   129  194.9706  104.1441       5691  0.0
   130  235.9401  110.2875       4668  0.0
   131  105.5658  131.7513       5708  0.0
   132  259.9899  134.6732       7187  0.0
   133   99.2106   91.6254       5659  0.0
   134  127.6809  202.0350       4799  0.0
   135  166.7835   99.2790       7691  0.0
   136  119.6490   27.6855       7506  0.0
   137  198.8028  264.4662       8892  0.0
   138  183.2013   94.9005       6840  0.0
   139  223.8357  130.2285       6052  0.0
   140  123.3318  272.5848       8784  0.0
   141  171.8811  126.6099       6555  0.0
   142  166.4274  119.6562       6742  0.0
   143  211.6056  287.8128       9321  0.0
   144  208.1673   53.7411       9437  0.0
   145  164.3457   35.7696       6309  0.0
   146   51.9492  109.4544       6548  0.0
   147  221.0526  226.4958       4662  0.0
   148  211.1880   40.9893       4068  0.0
   149   89.8887  196.3104       4676  0.0
   150   91.8042  162.7347       4318  0.0
   151   39.5418   82.9861       9015  0.0
   152   65.0794  155.2566       7068  0.0
   153   99.0690  263.0754       7478  0.0
   154   81.2244  222.8223       7104  0.0
   155  205.4136   15.5184       9418  0.0
   156  103.8639  180.5646       7176  0.0
   157  190.1124   66.6921       9813  0.0
   158   79.4886   47.5002       8242  0.0
   159   78.3654  262.8741       6642  0.0
   160   46.8553   87.7923       8210  0.0
   161   30.6840   52.6080       4086  0.0
   162  287.8407    1.2714       4244  0.0
   163   36.1197  243.1497       9269  0.0
   164   57.3096  100.7424       5313  0.0
   165   84.3891   94.2810       5193  0.0
   166   39.0489  135.1836       4745  0.0
   167   20.2380   87.5445       7766  0.0
   168  124.7751  101.5242       6500  0.0
   169  196.0617   99.1353       4799  0.0
   170   82.9635   48.8409       6977  0.0
   171  220.5936  131.5857       8948  0.0
   172   88.4526   19.7556       5913  0.0
   173  108.3165   81.9219       4971  0.0
   174  254.7753  255.3162       7598  0.0
   175  171.3126   75.7854       4277  0.0
   176  186.2412  245.9976       9114  0.0
   177   34.2000  225.2832       7849  0.0
   178   96.8082  129.5151       7461  0.0
   179   58.5018   16.2555       6517  0.0
   180  152.4795   13.4637       9166  0.0
   181  239.9673  115.8489       8231  0.0
   182  248.7765  265.7244       6633  0.0
   183  117.3297   99.6777       9192  0.0
   184    5.7282   65.8803       8746  0.0
   185  136.3956  261.5481       9683  0.0
   186  240.3858  123.6990       7962  0.0
   187   35.9460  250.9416       6187  0.0
   188  204.6468  256.4370       8051  0.0
   189   40.1097   99.6648       6882  0.0
   190  215.9193  218.9403       6013  0.0
   191   25.4922   18.0195       8026  0.0
   192   58.5156   42.0357       4122  0.0
   193  247.7262  281.5626       8148  0.0
   194  108.9345  266.8158       8612  0.0
   195   12.8241  226.7538       6767  0.0
   196   23.7492   15.7161       9208  0.0
   197  170.7948  107.7708       6638  0.0
   198   45.4071  275.3019       4164  0.0
   199  244.2783   56.5071       9948  0.0
   200   70.2858   49.6026       4911  0.0
   201  216.7662  107.5722       9128  0.0
   202  283.7070   82.9971       4949  0.0
   203  180.3108  124.2741       7174  0.0
   204  286.2177   14.2248       8828  0.0
   205  201.4251   20.6748       8373  0.0
   206  189.7938  213.2445       5229  0.0
   207  143.3838  133.6242       7528  0.0
   208   23.8926  236.9817       4805  0.0
   209  124.0131   32.0790       8671  0.0
   210  257.7321    7.9077       8554  0.0
   211  129.0963  240.9477       5618  0.0
   212  123.0864  113.7459       7331  0.0
   213   74.2356   80.8479       4752  0.0
   214  100.2261  170.7078       5874  0.0
   215  241.2123   47.8683       7729  0.0
   216  101.8254  147.1251       6140  0.0
   217   75.0162   59.4939       8141  0.0
   218  290.6031   17.9712       7320  0.0
   219  141.2676  268.9824       5085  0.0
   220  262.2027   65.2104       4061  0.0
   221  287.9766  280.6620       7725  0.0
   222  174.8079  294.6546       5290  0.0
   223  263.9025   34.5321       5986  0.0
   224   65.3475  194.1582      11010  0.0
   225   75.9990  118.4136       8697  0.0
   226   90.6702  109.1628       9948  0.0
   227  137.4435  289.8765       5077  0.0
   228   48.2511  109.1418       5805  0.0
   229  108.6444  279.6540       4553  0.0
   230  182.1816  161.1972       6794  0.0
   231   69.2034   12.0825       6206  0.0
   232  199.8471  119.0991       4154  0.0
   233  267.5823  110.5287       4393  0.0
   234   60.4764  212.7510       5207  0.0
   235  290.7402  265.9164      10105  0.0
   236  139.0770  216.3144       6397  0.0
   237  153.5718   84.5517       5114  0.0
   238  130.4739  212.7936       8118  0.0
   239  248.9721  107.4123       4027  0.0
   240  261.5826   43.1643       5145  0.0
   241  138.2943  235.3053       6946  0.0
   242  273.8607  259.4247       4451  0.0
   243   33.4404  117.4626       5977  0.0
   244  218.6928  191.5437       9053  0.0
   245   80.9892  298.1169       5124  0.0
   246   70.5729  198.8613       9560  0.0
   247   76.8723  226.2954       4371  0.0
   248  144.9117   14.0244       5498  0.0
   249  282.5706  183.2883       4773  0.0
   250  218.1063   44.2938       6309  0.0
   251   69.3267   81.7953       4838  0.0
   252  198.6258   64.4034       8719  0.0
   253  112.6548  140.3748       9534  0.0
   254  285.1368   84.5289       9690  0.0
   255   67.8066   37.6650       9069  0.0
   256  290.5056   81.8715      11105  0.0
   257   63.8151  165.8265       4182  0.0
   258  208.6941   97.9014       4153  0.0
   259  108.3507  145.9848       9292  0.0
   260  249.7536  108.8565       5487  0.0
   261  280.7964  259.8039       5534  0.0
   262  111.9276   18.1341       9306  0.0
   263  137.5161  184.2765      10277  0.0
   264  217.5609  161.7345       5583  0.0
   265  133.6188  157.3137       4944  0.0
   266   90.3792   69.4218       5801  0.0
   267  295.5534    7.2282       4491  0.0
   268  282.4596   97.8798       5556  0.0
   269   54.0336  154.8972       4439  0.0
   270  162.4947  140.9523      10969  0.0
   271   35.1405  215.4309       5013  0.0
   272  244.7151  224.8680       7911  0.0
   273   25.4487  218.6028       9916  0.0
   274  196.1010  241.5399       4167  0.0
   275  144.5184   51.1374       6206  0.0
   276   35.9982   22.3815       4365  0.0
   277  237.0012   85.9086       4068  0.0
   278  180.8184  251.0109       6024  0.0
   279   72.3882  231.1305       4595  0.0
   280  240.7866  259.0200       4881  0.0
   281   60.5550  282.7728       7515  0.0
   282  126.6435  128.5332       5156  0.0
   283  172.5108  145.2132       6554  0.0
   284  242.9058  104.6646       4473  0.0
   285   10.8111  114.4233       6521  0.0
   286   82.9200  192.2754       8152  0.0
   287   90.5130  170.4843       7216  0.0
   288   30.1065  222.9270       8266  0.0
   289  131.9865   91.2891       6571  0.0
   290  279.2862  177.1788       4718  0.0
   291  204.6666  138.7557       4803  0.0
   292  120.0864  211.3824       4300  0.0
   293  269.6922  119.3004       6091  0.0
   294   58.4388   18.5478       4205  0.0
   295  286.8963   51.9153       6600  0.0
   296  194.6028  197.2194       4045  0.0
   297  143.0124  111.7947       6128  0.0
   298  193.5201  129.3237       4680  0.0
   299  165.6525    4.2975      10096  0.0
