!$Wavelength in \A$Flux in cgs/s/\A$
!
! SWP3196,LORES,LAP,Wavelength(A),Flux(cgs/s/A)                                 
! OBJECT='BD+37 1977 (SWP3196,BAP,LORES)'                                       
!         377
   1102.495      0.0000000E+00
   1104.855      0.0000000E+00
   1107.214      0.0000000E+00
   1109.574      0.0000000E+00
   1111.933      0.0000000E+00
   1114.293      0.0000000E+00
   1116.652      0.0000000E+00
   1119.011      0.0000000E+00
   1121.371      0.0000000E+00
   1123.730      0.0000000E+00
   1126.090      0.0000000E+00
   1128.449      0.0000000E+00
   1130.809      0.0000000E+00
   1133.168      0.0000000E+00
   1135.528      0.0000000E+00
   1137.887      0.0000000E+00
   1140.246      0.0000000E+00
   1142.606      0.0000000E+00
   1144.965      0.0000000E+00
   1147.325      0.0000000E+00
   1149.684      0.0000000E+00
   1152.044      4.2623134E-11
   1154.403      5.3262006E-11
   1156.762      5.3555910E-11
   1159.122      5.9899835E-11
   1161.481      5.1495908E-11
   1163.841      4.8903017E-11
   1166.200      4.6793007E-11
   1168.560      4.3354025E-11
   1170.919      4.4713226E-11
   1173.278      4.0272893E-11
   1175.638      3.8734398E-11
   1177.997      4.4050562E-11
   1180.357      4.5020883E-11
   1182.716      4.6560877E-11
   1185.076      4.3914278E-11
   1187.435      0.0000000E+00
   1189.794      0.0000000E+00
   1192.154      0.0000000E+00
   1194.513      0.0000000E+00
   1196.873      0.0000000E+00
   1199.232      0.0000000E+00
   1201.592      3.5409401E-11
   1203.951      3.7742837E-11
   1206.311      3.9762724E-11
   1208.670      3.4462246E-11
   1211.029      3.2688508E-11
   1213.389      2.2920974E-11
   1215.748      1.6740630E-11
   1218.108      2.1505575E-11
   1220.467      3.1409396E-11
   1222.827      3.5491891E-11
   1225.186      3.6007381E-11
   1227.545      3.5115216E-11
   1229.905      2.8646205E-11
   1232.264      1.6121774E-11
   1234.624      1.1206369E-11
   1236.983      1.3064994E-11
   1239.343      2.0374742E-11
   1241.702      3.0742027E-11
   1244.061      0.0000000E+00
   1246.421      0.0000000E+00
   1248.780      3.9567828E-11
   1251.140      3.7104486E-11
   1253.499      0.0000000E+00
   1255.859      0.0000000E+00
   1258.218      3.4058804E-11
   1260.578      3.0744112E-11
   1262.937      3.3306653E-11
   1265.296      3.7999680E-11
   1267.656      3.7830437E-11
   1270.015      3.2391419E-11
   1272.375      3.5719653E-11
   1274.734      3.5805841E-11
   1277.094      3.7375956E-11
   1279.453      3.5799901E-11
   1281.812      3.6090929E-11
   1284.172      3.5098719E-11
   1286.531      3.4153839E-11
   1288.891      3.6262434E-11
   1291.250      3.5330811E-11
   1293.609      3.4125407E-11
   1295.969      3.5695426E-11
   1298.328      3.5545063E-11
   1300.688      3.3617120E-11
   1303.047      2.9869170E-11
   1305.407      2.9537754E-11
   1307.766      3.0804321E-11
   1310.125      3.2429334E-11
   1312.485      3.2465808E-11
   1314.844      3.2206314E-11
   1317.204      3.3699092E-11
   1319.563      2.9910192E-11
   1321.923      3.1876706E-11
   1324.282      3.2301540E-11
   1326.642      0.0000000E+00
   1329.001      0.0000000E+00
   1331.360      3.2398140E-11
   1333.720      3.0304086E-11
   1336.079      2.6080861E-11
   1338.439      2.8965490E-11
   1340.798      2.8396648E-11
   1343.158      2.9044284E-11
   1345.517      2.9667283E-11
   1347.876      2.9222000E-11
   1350.236      2.6986793E-11
   1352.595      2.6592810E-11
   1354.955      2.7837493E-11
   1357.314      2.8896812E-11
   1359.674      2.7401911E-11
   1362.033      2.6295244E-11
   1364.392      2.5634096E-11
   1366.752      2.5384654E-11
   1369.111      2.7218795E-11
   1371.471      2.4320755E-11
   1373.830      2.3666154E-11
   1376.190      2.5398302E-11
   1378.549      2.5723290E-11
   1380.909      2.6531614E-11
   1383.268      2.8363468E-11
   1385.627      2.6295263E-11
   1387.987      2.3589748E-11
   1390.346      2.3292450E-11
   1392.706      2.4631030E-11
   1395.065      2.3010654E-11
   1397.425      2.5574114E-11
   1399.784      2.6818974E-11
   1402.143      2.5115146E-11
   1404.503      2.3731205E-11
   1406.862      2.2496890E-11
   1409.222      2.3161596E-11
   1411.581      2.4219873E-11
   1413.941      2.4687679E-11
   1416.300      2.3759784E-11
   1418.659      2.2678642E-11
   1421.019      2.2796279E-11
   1423.378      2.5280831E-11
   1425.738      2.5693661E-11
   1428.097      2.3220896E-11
   1430.457      2.2952038E-11
   1432.816      2.4178728E-11
   1435.175      2.4906828E-11
   1437.535      2.4060589E-11
   1439.894      2.2710538E-11
   1442.254      2.1225802E-11
   1444.613      2.2287529E-11
   1446.973      2.1573241E-11
   1449.332      2.1906952E-11
   1451.692      2.1901595E-11
   1454.051      2.2586790E-11
   1456.410      2.1206519E-11
   1458.770      2.0895740E-11
   1461.129      2.1337212E-11
   1463.489      2.0223634E-11
   1465.848      2.0971109E-11
   1468.208      2.1974041E-11
   1470.567      2.4641261E-11
   1472.926      2.4196034E-11
   1475.286      2.3992162E-11
   1477.645      2.2205904E-11
   1480.005      2.1549861E-11
   1482.364      2.4746500E-11
   1484.724      2.1656886E-11
   1487.083      2.2871156E-11
   1489.442      2.3610303E-11
   1491.802      2.2809357E-11
   1494.161      2.4318011E-11
   1496.521      2.2751140E-11
   1498.880      2.2923854E-11
   1501.240      2.2690794E-11
   1503.599      2.2893874E-11
   1505.958      2.1006499E-11
   1508.318      2.0010901E-11
   1510.677      2.0858067E-11
   1513.037      2.1252174E-11
   1515.396      2.2964063E-11
   1517.756      2.2145353E-11
   1520.115      2.1771985E-11
   1522.474      2.1609055E-11
   1524.834      2.2292850E-11
   1527.193      2.2003481E-11
   1529.553      1.9981005E-11
   1531.912      1.9351239E-11
   1534.272      2.0221708E-11
   1536.631      1.6895287E-11
   1538.990      1.2223860E-11
   1541.350      5.5749494E-12
   1543.709      4.5410811E-12
   1546.069      8.6517755E-12
   1548.428      1.1668218E-11
   1550.788      1.6884542E-11
   1553.147      2.1276323E-11
   1555.507      2.3399263E-11
   1557.866      2.2077323E-11
   1560.225      2.0995945E-11
   1562.585      1.9550798E-11
   1564.944      1.8330925E-11
   1567.304      1.8933103E-11
   1569.663      1.7990059E-11
   1572.023      1.8235385E-11
   1574.382      2.0376558E-11
   1576.741      1.8467129E-11
   1579.101      1.7580951E-11
   1581.460      1.9287580E-11
   1583.820      1.9062290E-11
   1586.179      1.7451287E-11
   1588.539      1.8213434E-11
   1590.898      1.8237882E-11
   1593.257      1.9442562E-11
   1595.617      1.8436058E-11
   1597.976      1.7029279E-11
   1600.336      1.7874337E-11
   1602.695      1.6468908E-11
   1605.055      1.7077175E-11
   1607.414      1.5301999E-11
   1609.773      1.5872713E-11
   1612.133      1.7322709E-11
   1614.492      1.7134610E-11
   1616.852      1.6300794E-11
   1619.211      1.5982531E-11
   1621.571      1.4838710E-11
   1623.930      1.4754016E-11
   1626.290      1.5680329E-11
   1628.649      1.5792961E-11
   1631.008      1.5561608E-11
   1633.368      1.4702196E-11
   1635.727      1.4480097E-11
   1638.087      1.4323782E-11
   1640.446      1.3593547E-11
   1642.806      1.3796886E-11
   1645.165      1.4577452E-11
   1647.524      1.5883593E-11
   1649.884      1.5540612E-11
   1652.243      1.5851742E-11
   1654.603      1.5713068E-11
   1656.962      0.0000000E+00
   1659.322      0.0000000E+00
   1661.681      0.0000000E+00
   1664.040      0.0000000E+00
   1666.400      1.4649134E-11
   1668.759      1.4897489E-11
   1671.119      1.4410964E-11
   1673.478      1.4258939E-11
   1675.838      1.4593833E-11
   1678.197      1.4143498E-11
   1680.557      1.4806392E-11
   1682.916      1.3765857E-11
   1685.275      1.3452501E-11
   1687.635      1.3695866E-11
   1689.994      1.3735659E-11
   1692.354      1.4316735E-11
   1694.713      1.4529216E-11
   1697.073      1.4458801E-11
   1699.432      1.4722206E-11
   1701.791      1.4584849E-11
   1704.151      1.4494228E-11
   1706.510      1.4551108E-11
   1708.870      1.4469756E-11
   1711.229      1.4175949E-11
   1713.589      1.2743713E-11
   1715.948      1.1959095E-11
   1718.307      1.2186358E-11
   1720.667      1.3222890E-11
   1723.026      1.3574746E-11
   1725.386      1.3995772E-11
   1727.745      1.3224249E-11
   1730.104      1.3911326E-11
   1732.464      1.5163719E-11
   1734.823      1.4912181E-11
   1737.183      1.4318853E-11
   1739.542      1.4812726E-11
   1741.902      1.4647101E-11
   1744.261      1.4548547E-11
   1746.621      1.3903747E-11
   1748.980      1.3950243E-11
   1751.339      1.3462060E-11
   1753.699      1.2925802E-11
   1756.058      1.3982182E-11
   1758.418      1.4787532E-11
   1760.777      1.3757094E-11
   1763.137      1.3779795E-11
   1765.496      1.3241134E-11
   1767.855      1.3470587E-11
   1770.215      1.3572501E-11
   1772.574      1.3386952E-11
   1774.934      1.3803359E-11
   1777.293      1.3735923E-11
   1779.653      1.3049679E-11
   1782.012      1.2874468E-11
   1784.371      1.3167492E-11
   1786.731      0.0000000E+00
   1789.090      0.0000000E+00
   1791.450      0.0000000E+00
   1793.809      0.0000000E+00
   1796.169      0.0000000E+00
   1798.528      1.3262432E-11
   1800.888      1.3204323E-11
   1803.247      1.3451162E-11
   1805.606      1.3386243E-11
   1807.966      1.3447491E-11
   1810.325      1.3444939E-11
   1812.685      1.3454605E-11
   1815.044      1.2942277E-11
   1817.404      1.3569080E-11
   1819.763      1.4282274E-11
   1822.122      1.3243288E-11
   1824.482      1.2146195E-11
   1826.841      1.2003426E-11
   1829.201      1.2504394E-11
   1831.560      1.2490672E-11
   1833.920      1.1810788E-11
   1836.279      1.1849756E-11
   1838.638      1.1922610E-11
   1840.998      1.1820649E-11
   1843.357      1.1680126E-11
   1845.717      1.1512047E-11
   1848.076      1.1869405E-11
   1850.436      1.2410271E-11
   1852.795      1.2466407E-11
   1855.154      1.1671599E-11
   1857.514      1.1502369E-11
   1859.873      1.2024792E-11
   1862.233      1.2056692E-11
   1864.592      1.1766058E-11
   1866.952      1.1919564E-11
   1869.311      1.1689361E-11
   1871.671      1.1622822E-11
   1874.030      1.1849749E-11
   1876.389      1.1238115E-11
   1878.749      1.0660279E-11
   1881.108      1.1182728E-11
   1883.468      1.1484373E-11
   1885.827      1.1155459E-11
   1888.187      1.1214988E-11
   1890.546      1.1207427E-11
   1892.905      1.1047515E-11
   1895.265      1.0834974E-11
   1897.624      1.0600586E-11
   1899.984      1.0461103E-11
   1902.343      1.0111413E-11
   1904.703      1.0488832E-11
   1907.062      1.0789415E-11
   1909.421      1.0711150E-11
   1911.781      1.0932782E-11
   1914.140      1.0945624E-11
   1916.500      1.0685428E-11
   1918.859      1.0736675E-11
   1921.219      1.0287261E-11
   1923.578      0.0000000E+00
   1925.938      9.9888171E-12
   1928.297      1.0352663E-11
   1930.656      1.0458177E-11
   1933.016      1.0142351E-11
   1935.375      9.9592990E-12
   1937.735      9.9629931E-12
   1940.094      9.8343790E-12
   1942.453      9.8998925E-12
   1944.813      9.7926146E-12
   1947.172      1.0006413E-11
   1949.532      1.0209587E-11
   1951.891      1.0310768E-11
   1954.251      1.0364590E-11
   1956.610      1.0135085E-11
   1958.969      1.0116319E-11
   1961.329      9.7818116E-12
   1963.688      9.8434542E-12
   1966.048      9.8732437E-12
   1968.407      9.6071736E-12
   1970.767      9.3460014E-12
   1973.126      9.0996559E-12
   1975.485      0.0000000E+00
   1977.845      0.0000000E+00
   1980.204      0.0000000E+00
   1982.564      0.0000000E+00
   1984.923      0.0000000E+00
   1987.283      0.0000000E+00
   1989.642      0.0000000E+00
